Frequency (Hz)	Level (dB)
10.766602	-34.458580
21.533203	-34.382278
32.299805	-34.145863
43.066406	-34.100098
53.833008	-34.520554
64.599609	-34.588409
75.366211	-34.130943
86.132812	-34.349407
96.899414	-33.640717
107.666016	-34.436855
118.432617	-34.252766
129.199219	-34.070049
139.965820	-34.169392
150.732422	-33.834785
161.499023	-33.838627
172.265625	-34.522743
183.032227	-34.400063
193.798828	-33.638554
204.565430	-34.348347
215.332031	-34.314079
226.098633	-34.866024
236.865234	-34.224731
247.631836	-34.346752
258.398438	-34.724937
269.165039	-34.549625
279.931641	-33.411598
290.698242	-34.615273
301.464844	-34.432716
312.231445	-33.793606
322.998047	-33.898563
333.764648	-33.952065
344.531250	-33.159134
355.297852	-33.987671
366.064453	-34.074539
376.831055	-33.992546
387.597656	-34.395905
398.364258	-33.667465
409.130859	-34.200970
419.897461	-33.774235
430.664062	-33.320034
441.430664	-34.356052
452.197266	-34.027542
462.963867	-33.901367
473.730469	-34.189083
484.497070	-34.250988
495.263672	-33.644775
506.030273	-34.092155
516.796875	-33.958565
527.563477	-34.162613
538.330078	-33.802288
549.096680	-34.036438
559.863281	-34.287231
570.629883	-33.941372
581.396484	-34.176540
592.163086	-34.081249
602.929688	-33.814980
613.696289	-33.963276
624.462891	-34.127003
635.229492	-34.392109
645.996094	-33.722694
656.762695	-33.584873
667.529297	-34.503681
678.295898	-34.173279
689.062500	-34.009346
699.829102	-34.045422
710.595703	-33.987488
721.362305	-33.914188
732.128906	-33.689632
742.895508	-34.143326
753.662109	-33.929119
764.428711	-34.303814
775.195312	-33.672421
785.961914	-34.428356
796.728516	-33.703533
807.495117	-34.420403
818.261719	-34.436356
829.028320	-33.321072
839.794922	-34.608418
850.561523	-33.477139
861.328125	-34.175686
872.094727	-33.725143
882.861328	-34.549500
893.627930	-33.529171
904.394531	-34.523769
915.161133	-34.411049
925.927734	-34.067162
936.694336	-34.175652
947.460938	-34.400368
958.227539	-33.425518
968.994141	-34.641376
979.760742	-33.977459
990.527344	-34.185116
1001.293945	-33.797874
1012.060547	-34.479237
1022.827148	-33.859985
1033.593750	-33.472641
1044.360352	-34.319111
1055.126953	-33.382153
1065.893555	-34.051182
1076.660156	-33.992043
1087.426758	-33.504475
1098.193359	-33.741619
1108.959961	-34.401997
1119.726562	-33.505890
1130.493164	-34.590900
1141.259766	-33.777935
1152.026367	-33.639606
1162.792969	-33.883102
1173.559570	-33.095734
1184.326172	-33.658730
1195.092773	-33.968559
1205.859375	-34.369705
1216.625977	-34.748791
1227.392578	-34.536285
1238.159180	-34.477074
1248.925781	-34.855888
1259.692383	-33.937214
1270.458984	-34.287033
1281.225586	-34.451492
1291.992188	-34.178268
1302.758789	-33.559364
1313.525391	-34.147995
1324.291992	-34.070465
1335.058594	-33.988983
1345.825195	-34.250065
1356.591797	-34.333538
1367.358398	-34.000759
1378.125000	-34.365761
1388.891602	-33.617275
1399.658203	-34.294621
1410.424805	-34.682522
1421.191406	-34.120377
1431.958008	-33.509750
1442.724609	-34.175617
1453.491211	-33.965508
1464.257812	-33.917168
1475.024414	-34.236389
1485.791016	-33.250404
1496.557617	-34.088383
1507.324219	-35.328156
1518.090820	-34.547081
1528.857422	-33.943779
1539.624023	-34.537952
1550.390625	-33.799828
1561.157227	-34.239349
1571.923828	-34.225796
1582.690430	-35.241158
1593.457031	-34.659016
1604.223633	-34.140785
1614.990234	-34.181038
1625.756836	-34.169441
1636.523438	-33.820805
1647.290039	-33.700752
1658.056641	-34.180489
1668.823242	-33.564079
1679.589844	-33.945999
1690.356445	-33.643982
1701.123047	-33.638493
1711.889648	-34.132580
1722.656250	-33.555084
1733.422852	-34.126957
1744.189453	-34.195946
1754.956055	-33.854099
1765.722656	-34.648327
1776.489258	-34.087357
1787.255859	-33.887901
1798.022461	-33.963543
1808.789062	-34.168934
1819.555664	-34.044273
1830.322266	-33.659271
1841.088867	-33.396473
1851.855469	-34.299332
1862.622070	-34.029648
1873.388672	-34.382240
1884.155273	-34.458050
1894.921875	-33.884617
1905.688477	-34.466927
1916.455078	-34.013050
1927.221680	-33.947697
1937.988281	-34.486359
1948.754883	-34.496952
1959.521484	-34.283932
1970.288086	-33.938889
1981.054688	-33.708355
1991.821289	-33.916534
2002.587891	-34.238731
2013.354492	-34.218937
2024.121094	-34.196083
2034.887695	-34.380005
2045.654297	-33.990753
2056.420898	-34.113029
2067.187500	-34.435272
2077.954102	-33.288147
2088.720703	-34.403477
2099.487305	-33.625736
2110.253906	-33.724079
2121.020508	-34.383743
2131.787109	-34.057446
2142.553711	-34.393658
2153.320312	-34.311237
2164.086914	-34.079472
2174.853516	-33.984367
2185.620117	-34.134113
2196.386719	-34.426880
2207.153320	-34.064846
2217.919922	-35.138672
2228.686523	-34.203583
2239.453125	-33.857468
2250.219727	-34.425774
2260.986328	-33.490997
2271.752930	-34.600693
2282.519531	-34.286140
2293.286133	-33.972340
2304.052734	-34.050663
2314.819336	-34.216984
2325.585938	-34.257729
2336.352539	-34.317596
2347.119141	-34.211185
2357.885742	-33.594368
2368.652344	-34.097828
2379.418945	-33.958313
2390.185547	-33.378544
2400.952148	-34.696373
2411.718750	-34.860958
2422.485352	-33.749138
2433.251953	-33.989128
2444.018555	-33.939888
2454.785156	-34.305984
2465.551758	-34.159111
2476.318359	-34.398079
2487.084961	-33.579666
2497.851562	-33.564182
2508.618164	-34.040379
2519.384766	-34.147583
2530.151367	-34.018646
2540.917969	-33.854935
2551.684570	-33.714035
2562.451172	-34.540195
2573.217773	-33.702236
2583.984375	-34.104671
2594.750977	-34.270706
2605.517578	-34.177197
2616.284180	-34.172905
2627.050781	-33.708801
2637.817383	-33.920376
2648.583984	-34.672710
2659.350586	-33.825138
2670.117188	-34.005680
2680.883789	-34.498032
2691.650391	-33.809265
2702.416992	-34.470448
2713.183594	-33.707119
2723.950195	-34.234959
2734.716797	-34.092419
2745.483398	-34.344585
2756.250000	-34.284580
2767.016602	-33.579498
2777.783203	-34.250172
2788.549805	-33.637615
2799.316406	-33.976936
2810.083008	-34.161739
2820.849609	-34.525093
2831.616211	-34.428989
2842.382812	-34.197060
2853.149414	-33.946579
2863.916016	-34.272095
2874.682617	-33.684944
2885.449219	-33.945461
2896.215820	-34.077152
2906.982422	-34.325283
2917.749023	-34.280506
2928.515625	-34.156826
2939.282227	-33.855312
2950.048828	-33.689522
2960.815430	-34.039837
2971.582031	-34.149864
2982.348633	-34.388294
2993.115234	-34.466854
3003.881836	-34.104729
3014.648438	-34.304798
3025.415039	-33.977798
3036.181641	-33.889973
3046.948242	-34.354988
3057.714844	-34.149796
3068.481445	-33.407043
3079.248047	-33.612900
3090.014648	-34.093063
3100.781250	-34.177116
3111.547852	-34.469555
3122.314453	-34.262585
3133.081055	-34.149323
3143.847656	-33.615196
3154.614258	-34.204998
3165.380859	-32.979408
3176.147461	-34.228905
3186.914062	-33.764889
3197.680664	-34.013660
3208.447266	-33.598831
3219.213867	-33.904770
3229.980469	-34.647476
3240.747070	-34.473946
3251.513672	-34.261372
3262.280273	-33.784851
3273.046875	-34.141392
3283.813477	-33.865074
3294.580078	-34.377087
3305.346680	-33.913757
3316.113281	-34.614567
3326.879883	-33.856819
3337.646484	-33.476379
3348.413086	-34.134098
3359.179688	-34.407867
3369.946289	-33.269772
3380.712891	-34.301804
3391.479492	-34.196846
3402.246094	-34.216721
3413.012695	-33.969269
3423.779297	-34.330898
3434.545898	-34.648567
3445.312500	-33.753437
3456.079102	-33.867954
3466.845703	-33.729225
3477.612305	-33.679688
3488.378906	-33.978485
3499.145508	-33.781013
3509.912109	-34.297825
3520.678711	-34.007175
3531.445312	-34.078880
3542.211914	-35.003952
3552.978516	-34.068844
3563.745117	-35.312855
3574.511719	-34.268955
3585.278320	-32.894417
3596.044922	-34.416756
3606.811523	-34.282131
3617.578125	-33.412094
3628.344727	-33.269932
3639.111328	-34.112453
3649.877930	-33.950390
3660.644531	-34.661369
3671.411133	-34.252625
3682.177734	-33.971794
3692.944336	-33.354237
3703.710938	-33.812820
3714.477539	-34.178143
3725.244141	-34.342472
3736.010742	-34.742355
3746.777344	-34.033649
3757.543945	-33.955555
3768.310547	-34.295765
3779.077148	-34.211025
3789.843750	-33.883450
3800.610352	-34.609772
3811.376953	-34.708244
3822.143555	-33.720093
3832.910156	-34.440002
3843.676758	-34.388554
3854.443359	-34.693008
3865.209961	-34.459023
3875.976562	-34.135509
3886.743164	-33.480389
3897.509766	-34.349678
3908.276367	-33.988117
3919.042969	-34.331894
3929.809570	-33.964489
3940.576172	-34.282688
3951.342773	-34.464695
3962.109375	-34.187271
3972.875977	-35.096081
3983.642578	-34.167877
3994.409180	-33.956612
4005.175781	-33.768524
4015.942383	-33.928093
4026.708984	-34.775616
4037.475586	-34.470993
4048.242188	-33.393417
4059.008789	-33.671986
4069.775391	-34.318653
4080.541992	-34.552887
4091.308594	-33.737862
4102.075195	-34.488094
4112.841797	-34.251091
4123.608398	-33.892044
4134.375000	-34.456715
4145.141602	-33.173977
4155.908203	-34.439270
4166.674805	-34.595119
4177.441406	-34.337753
4188.208008	-34.172150
4198.974609	-34.852802
4209.741211	-34.465073
4220.507812	-33.239445
4231.274414	-33.987797
4242.041016	-33.554035
4252.807617	-34.533623
4263.574219	-33.739040
4274.340820	-34.314190
4285.107422	-35.207943
4295.874023	-34.174000
4306.640625	-33.613914
4317.407227	-34.329441
4328.173828	-34.237942
4338.940430	-33.915020
4349.707031	-34.449081
4360.473633	-34.141628
4371.240234	-34.218754
4382.006836	-33.865517
4392.773438	-33.895126
4403.540039	-33.513111
4414.306641	-34.191376
4425.073242	-34.250217
4435.839844	-34.811028
4446.606445	-33.809231
4457.373047	-33.881725
4468.139648	-34.288116
4478.906250	-33.764874
4489.672852	-33.936298
4500.439453	-34.214508
4511.206055	-33.863342
4521.972656	-33.808464
4532.739258	-33.917660
4543.505859	-33.869377
4554.272461	-34.421577
4565.039062	-34.161854
4575.805664	-34.068520
4586.572266	-34.103127
4597.338867	-34.176788
4608.105469	-34.578766
4618.872070	-34.616161
4629.638672	-33.417267
4640.405273	-33.744091
4651.171875	-34.073479
4661.938477	-34.763008
4672.705078	-34.448643
4683.471680	-34.436806
4694.238281	-33.868191
4705.004883	-34.251541
4715.771484	-34.295280
4726.538086	-33.698833
4737.304688	-33.835567
4748.071289	-33.465759
4758.837891	-33.692745
4769.604492	-34.593689
4780.371094	-34.340034
4791.137695	-34.284901
4801.904297	-33.760551
4812.670898	-34.487537
4823.437500	-33.273846
4834.204102	-34.322876
4844.970703	-34.299824
4855.737305	-34.541470
4866.503906	-33.764473
4877.270508	-33.919064
4888.037109	-33.969818
4898.803711	-33.926723
4909.570312	-34.086514
4920.336914	-34.386070
4931.103516	-33.578491
4941.870117	-33.587860
4952.636719	-34.524406
4963.403320	-33.697277
4974.169922	-33.819931
4984.936523	-34.039196
4995.703125	-33.871262
5006.469727	-33.771420
5017.236328	-34.221462
5028.002930	-34.410500
5038.769531	-35.016636
5049.536133	-33.512779
5060.302734	-34.461460
5071.069336	-33.226662
5081.835938	-34.470238
5092.602539	-34.286213
5103.369141	-34.903458
5114.135742	-34.131317
5124.902344	-33.037003
5135.668945	-34.140186
5146.435547	-34.047733
5157.202148	-33.775383
5167.968750	-34.053928
5178.735352	-33.917343
5189.501953	-34.600555
5200.268555	-33.851864
5211.035156	-34.165131
5221.801758	-34.411442
5232.568359	-34.313259
5243.334961	-34.262337
5254.101562	-34.729404
5264.868164	-34.408798
5275.634766	-33.795502
5286.401367	-33.960247
5297.167969	-34.252377
5307.934570	-33.532818
5318.701172	-33.657169
5329.467773	-34.168427
5340.234375	-33.932743
5351.000977	-33.743458
5361.767578	-33.348949
5372.534180	-34.184925
5383.300781	-34.115067
5394.067383	-34.239700
5404.833984	-33.897629
5415.600586	-34.525150
5426.367188	-33.797684
5437.133789	-34.171921
5447.900391	-33.818203
5458.666992	-33.956310
5469.433594	-34.247372
5480.200195	-33.261452
5490.966797	-33.877754
5501.733398	-34.000710
5512.500000	-33.841141
5523.266602	-33.931229
5534.033203	-34.567959
5544.799805	-34.503719
5555.566406	-34.100834
5566.333008	-33.818474
5577.099609	-34.443825
5587.866211	-34.089890
5598.632812	-34.506680
5609.399414	-34.029854
5620.166016	-33.798698
5630.932617	-34.608650
5641.699219	-34.119247
5652.465820	-33.277321
5663.232422	-34.151375
5673.999023	-34.683105
5684.765625	-34.165028
5695.532227	-34.544888
5706.298828	-33.723660
5717.065430	-34.380585
5727.832031	-34.015873
5738.598633	-34.274158
5749.365234	-34.323563
5760.131836	-34.509094
5770.898438	-34.193825
5781.665039	-34.339188
5792.431641	-33.379971
5803.198242	-33.745346
5813.964844	-34.178314
5824.731445	-34.705383
5835.498047	-33.927883
5846.264648	-34.112553
5857.031250	-34.061966
5867.797852	-33.864391
5878.564453	-33.330593
5889.331055	-34.127884
5900.097656	-33.786312
5910.864258	-33.863579
5921.630859	-33.791416
5932.397461	-34.370148
5943.164062	-34.109184
5953.930664	-33.246586
5964.697266	-34.721371
5975.463867	-34.847622
5986.230469	-34.385437
5996.997070	-34.178040
6007.763672	-34.448277
6018.530273	-34.042274
6029.296875	-34.931015
6040.063477	-33.294125
6050.830078	-33.866249
6061.596680	-34.955910
6072.363281	-34.452393
6083.129883	-33.876720
6093.896484	-33.953346
6104.663086	-34.477905
6115.429688	-34.163921
6126.196289	-34.683491
6136.962891	-34.059116
6147.729492	-33.578270
6158.496094	-34.350750
6169.262695	-33.908012
6180.029297	-34.951576
6190.795898	-34.181515
6201.562500	-34.230019
6212.329102	-34.016430
6223.095703	-34.467522
6233.862305	-34.165634
6244.628906	-34.623386
6255.395508	-34.174519
6266.162109	-34.236523
6276.928711	-34.016155
6287.695312	-34.054234
6298.461914	-34.285858
6309.228516	-34.059490
6319.995117	-34.371689
6330.761719	-34.383640
6341.528320	-33.943207
6352.294922	-34.057182
6363.061523	-33.715214
6373.828125	-33.938553
6384.594727	-33.515907
6395.361328	-33.763813
6406.127930	-34.305984
6416.894531	-33.884094
6427.661133	-33.687031
6438.427734	-34.331219
6449.194336	-34.670792
6459.960938	-34.106201
6470.727539	-33.748974
6481.494141	-34.299156
6492.260742	-34.008358
6503.027344	-34.409630
6513.793945	-33.931118
6524.560547	-33.486149
6535.327148	-33.896111
6546.093750	-34.438026
6556.860352	-33.337372
6567.626953	-33.987011
6578.393555	-34.397022
6589.160156	-33.802784
6599.926758	-33.895130
6610.693359	-33.231079
6621.459961	-34.195385
6632.226562	-34.109253
6642.993164	-34.335480
6653.759766	-33.603981
6664.526367	-34.299198
6675.292969	-33.711861
6686.059570	-34.111538
6696.826172	-34.235661
6707.592773	-34.155476
6718.359375	-34.043896
6729.125977	-34.058296
6739.892578	-33.915462
6750.659180	-34.369194
6761.425781	-35.009403
6772.192383	-34.160172
6782.958984	-34.354324
6793.725586	-34.131393
6804.492188	-34.190620
6815.258789	-34.473251
6826.025391	-34.149384
6836.791992	-34.081802
6847.558594	-33.356297
6858.325195	-34.202934
6869.091797	-34.728046
6879.858398	-33.787304
6890.625000	-34.231091
6901.391602	-34.614838
6912.158203	-34.351944
6922.924805	-34.351040
6933.691406	-34.280491
6944.458008	-33.588951
6955.224609	-33.851170
6965.991211	-34.517200
6976.757812	-34.512165
6987.524414	-34.152115
6998.291016	-34.706268
7009.057617	-34.037090
7019.824219	-34.396095
7030.590820	-34.301361
7041.357422	-33.720261
7052.124023	-34.604023
7062.890625	-34.118935
7073.657227	-34.011215
7084.423828	-34.289391
7095.190430	-34.953735
7105.957031	-33.985783
7116.723633	-34.136234
7127.490234	-34.467781
7138.256836	-33.926441
7149.023438	-34.781815
7159.790039	-33.156322
7170.556641	-33.723480
7181.323242	-34.232491
7192.089844	-33.832497
7202.856445	-33.412144
7213.623047	-34.237617
7224.389648	-34.315044
7235.156250	-34.575012
7245.922852	-34.701065
7256.689453	-34.114639
7267.456055	-34.500107
7278.222656	-33.974258
7288.989258	-34.458160
7299.755859	-34.190166
7310.522461	-34.015228
7321.289062	-33.516705
7332.055664	-33.754917
7342.822266	-34.309319
7353.588867	-33.261879
7364.355469	-33.735893
7375.122070	-34.080128
7385.888672	-34.523689
7396.655273	-33.187046
7407.421875	-33.997932
7418.188477	-34.289268
7428.955078	-34.246552
7439.721680	-33.837280
7450.488281	-33.896027
7461.254883	-33.741291
7472.021484	-34.323174
7482.788086	-34.194542
7493.554688	-34.129593
7504.321289	-33.830391
7515.087891	-33.957043
7525.854492	-33.947304
7536.621094	-34.115700
7547.387695	-34.168839
7558.154297	-33.839901
7568.920898	-34.836182
7579.687500	-33.562187
7590.454102	-32.884724
7601.220703	-34.431721
7611.987305	-34.599289
7622.753906	-33.927544
7633.520508	-34.782280
7644.287109	-33.773212
7655.053711	-34.188763
7665.820312	-34.074638
7676.586914	-34.029022
7687.353516	-34.577259
7698.120117	-34.338398
7708.886719	-34.636589
7719.653320	-33.900623
7730.419922	-33.690090
7741.186523	-33.696499
7751.953125	-33.791420
7762.719727	-34.068588
7773.486328	-33.319103
7784.252930	-34.030621
7795.019531	-34.001587
7805.786133	-33.883652
7816.552734	-33.798428
7827.319336	-34.087387
7838.085938	-33.646545
7848.852539	-33.801594
7859.619141	-34.166965
7870.385742	-34.351242
7881.152344	-33.756054
7891.918945	-33.720531
7902.685547	-34.012775
7913.452148	-34.439281
7924.218750	-33.779678
7934.985352	-34.575779
7945.751953	-33.643364
7956.518555	-33.798866
7967.285156	-33.226608
7978.051758	-34.124805
7988.818359	-34.004707
7999.584961	-33.754345
8010.351562	-32.958252
8021.118164	-33.892067
8031.884766	-33.773472
8042.651367	-33.795040
8053.417969	-33.351902
8064.184570	-34.403885
8074.951172	-34.348129
8085.717773	-34.623837
8096.484375	-34.114338
8107.250977	-34.516800
8118.017578	-34.061577
8128.784180	-33.926426
8139.550781	-33.875633
8150.317383	-34.178650
8161.083984	-33.808537
8171.850586	-34.656780
8182.617188	-34.179798
8193.383789	-33.788185
8204.150391	-34.887936
8214.916992	-34.269802
8225.683594	-33.985390
8236.450195	-34.356197
8247.216797	-33.746033
8257.983398	-34.320625
8268.750000	-34.061340
8279.516602	-33.928570
8290.283203	-34.461182
8301.049805	-33.366535
8311.816406	-34.782749
8322.583008	-33.754295
8333.349609	-34.234329
8344.116211	-33.977825
8354.882812	-34.471897
8365.649414	-34.463436
8376.416016	-33.812233
8387.182617	-34.184963
8397.949219	-33.689701
8408.715820	-34.717159
8419.482422	-34.024986
8430.249023	-33.650154
8441.015625	-33.915028
8451.782227	-34.009899
8462.548828	-34.283581
8473.315430	-34.389366
8484.082031	-33.948704
8494.848633	-34.109940
8505.615234	-34.070309
8516.381836	-34.945686
8527.148438	-34.138779
8537.915039	-34.522308
8548.681641	-34.174938
8559.448242	-34.005566
8570.214844	-33.740139
8580.981445	-33.746628
8591.748047	-34.006580
8602.514648	-34.561363
8613.281250	-34.710781
8624.047852	-33.726501
8634.814453	-34.472202
8645.581055	-34.467525
8656.347656	-34.167694
8667.114258	-34.007305
8677.880859	-33.560600
8688.647461	-34.391346
8699.414062	-33.849541
8710.180664	-33.882912
8720.947266	-34.530197
8731.713867	-34.489765
8742.480469	-34.716248
8753.247070	-34.575092
8764.013672	-34.029308
8774.780273	-34.115112
8785.546875	-33.653278
8796.313477	-34.094997
8807.080078	-33.602436
8817.846680	-34.208633
8828.613281	-34.141323
8839.379883	-33.820118
8850.146484	-34.288280
8860.913086	-33.460613
8871.679688	-34.362312
8882.446289	-34.198811
8893.212891	-34.338669
8903.979492	-33.777729
8914.746094	-34.015358
8925.512695	-33.277363
8936.279297	-33.853542
8947.045898	-34.128250
8957.812500	-33.676796
8968.579102	-33.782917
8979.345703	-33.738335
8990.112305	-34.036503
9000.878906	-34.107040
9011.645508	-33.958622
9022.412109	-35.378613
9033.178711	-34.089642
9043.945312	-33.929932
9054.711914	-34.111862
9065.478516	-34.639496
9076.245117	-34.904827
9087.011719	-34.305065
9097.778320	-33.628071
9108.544922	-34.183868
9119.311523	-34.619690
9130.078125	-34.432510
9140.844727	-33.877247
9151.611328	-34.384842
9162.377930	-34.211987
9173.144531	-33.758785
9183.911133	-33.530228
9194.677734	-33.536884
9205.444336	-34.114944
9216.210938	-34.559784
9226.977539	-34.092690
9237.744141	-34.138287
9248.510742	-34.443600
9259.277344	-33.984917
9270.043945	-33.455891
9280.810547	-34.166763
9291.577148	-34.438606
9302.343750	-33.579693
9313.110352	-34.536606
9323.876953	-34.552410
9334.643555	-34.780975
9345.410156	-34.382690
9356.176758	-33.651546
9366.943359	-34.597134
9377.709961	-33.649841
9388.476562	-33.604076
9399.243164	-34.332031
9410.009766	-33.556629
9420.776367	-34.390011
9431.542969	-33.774715
9442.309570	-33.931274
9453.076172	-34.024403
9463.842773	-34.204987
9474.609375	-34.663151
9485.375977	-33.644417
9496.142578	-34.159142
9506.909180	-33.905220
9517.675781	-34.166901
9528.442383	-33.770081
9539.208984	-33.489685
9549.975586	-34.240223
9560.742188	-33.912479
9571.508789	-34.337605
9582.275391	-33.451855
9593.041992	-33.590988
9603.808594	-34.608723
9614.575195	-34.238617
9625.341797	-34.157146
9636.108398	-34.101307
9646.875000	-33.850586
9657.641602	-34.048820
9668.408203	-33.734062
9679.174805	-33.901302
9689.941406	-33.803806
9700.708008	-33.985664
9711.474609	-34.348770
9722.241211	-33.807659
9733.007812	-34.445423
9743.774414	-33.054874
9754.541016	-34.510715
9765.307617	-33.744686
9776.074219	-33.943588
9786.840820	-34.328861
9797.607422	-34.358940
9808.374023	-34.098782
9819.140625	-33.582756
9829.907227	-34.012295
9840.673828	-33.839428
9851.440430	-34.559746
9862.207031	-33.615387
9872.973633	-33.544727
9883.740234	-33.644878
9894.506836	-33.855389
9905.273438	-34.845596
9916.040039	-33.938526
9926.806641	-33.887291
9937.573242	-33.660389
9948.339844	-34.474136
9959.106445	-33.918781
9969.873047	-34.604801
9980.639648	-34.099190
9991.406250	-33.969353
10002.172852	-33.759846
10012.939453	-34.895134
10023.706055	-34.286320
10034.472656	-33.731197
10045.239258	-34.311066
10056.005859	-34.675854
10066.772461	-34.240166
10077.539062	-34.672371
10088.305664	-33.567551
10099.072266	-33.960579
10109.838867	-34.084648
10120.605469	-33.992355
10131.372070	-34.270870
10142.138672	-34.653336
10152.905273	-34.473568
10163.671875	-34.453960
10174.438477	-34.158924
10185.205078	-34.052250
10195.971680	-34.730873
10206.738281	-33.767574
10217.504883	-33.686203
10228.271484	-34.381420
10239.038086	-33.664391
10249.804688	-33.738270
10260.571289	-34.039730
10271.337891	-34.130108
10282.104492	-33.985748
10292.871094	-34.153133
10303.637695	-34.600979
10314.404297	-34.209412
10325.170898	-34.189106
10335.937500	-33.963959
10346.704102	-33.824406
10357.470703	-34.066120
10368.237305	-34.294086
10379.003906	-34.101101
10389.770508	-34.420609
10400.537109	-34.208660
10411.303711	-34.676483
10422.070312	-35.081486
10432.836914	-34.493607
10443.603516	-34.148758
10454.370117	-34.547424
10465.136719	-34.261917
10475.903320	-34.122910
10486.669922	-33.951294
10497.436523	-33.974651
10508.203125	-34.110962
10518.969727	-33.899223
10529.736328	-33.690445
10540.502930	-33.480804
10551.269531	-34.358154
10562.036133	-34.248817
10572.802734	-34.603092
10583.569336	-34.254772
10594.335938	-34.184982
10605.102539	-34.434910
10615.869141	-33.498245
10626.635742	-33.911888
10637.402344	-34.458572
10648.168945	-34.613407
10658.935547	-33.692890
10669.702148	-33.388992
10680.468750	-34.273605
10691.235352	-34.721355
10702.001953	-33.718784
10712.768555	-34.632114
10723.535156	-34.125015
10734.301758	-34.309017
10745.068359	-34.278717
10755.834961	-33.005871
10766.601562	-34.296616
10777.368164	-33.977268
10788.134766	-34.206253
10798.901367	-34.334881
10809.667969	-34.559692
10820.434570	-33.912712
10831.201172	-33.939320
10841.967773	-34.266254
10852.734375	-34.544529
10863.500977	-34.305088
10874.267578	-33.824661
10885.034180	-34.021511
10895.800781	-34.464149
10906.567383	-34.461662
10917.333984	-34.440979
10928.100586	-34.607277
10938.867188	-33.134995
10949.633789	-34.601761
10960.400391	-34.268574
10971.166992	-34.160442
10981.933594	-34.607830
10992.700195	-34.600800
11003.466797	-34.322720
11014.233398	-33.711567
11025.000000	-34.395710
11035.766602	-34.471523
11046.533203	-34.408855
11057.299805	-34.747166
11068.066406	-34.445866
11078.833008	-34.985600
11089.599609	-33.125916
11100.366211	-34.139286
11111.132812	-34.382042
11121.899414	-34.025764
11132.666016	-34.331200
11143.432617	-34.264240
11154.199219	-34.164288
11164.965820	-33.948204
11175.732422	-34.078056
11186.499023	-34.594185
11197.265625	-33.737171
11208.032227	-34.440327
11218.798828	-33.675179
11229.565430	-33.765381
11240.332031	-33.492451
11251.098633	-34.351643
11261.865234	-33.898918
11272.631836	-33.560020
11283.398438	-33.886303
11294.165039	-34.144955
11304.931641	-34.194725
11315.698242	-33.397705
11326.464844	-33.763885
11337.231445	-34.164158
11347.998047	-34.415043
11358.764648	-34.219376
11369.531250	-33.518806
11380.297852	-34.188400
11391.064453	-33.396454
11401.831055	-33.875053
11412.597656	-33.830196
11423.364258	-34.264446
11434.130859	-33.853645
11444.897461	-34.469810
11455.664062	-33.491486
11466.430664	-35.070938
11477.197266	-34.598461
11487.963867	-34.340801
11498.730469	-34.195629
11509.497070	-32.924725
11520.263672	-34.230164
11531.030273	-34.718571
11541.796875	-34.208641
11552.563477	-34.618176
11563.330078	-34.572197
11574.096680	-33.526440
11584.863281	-33.990250
11595.629883	-34.037971
11606.396484	-33.819946
11617.163086	-33.942181
11627.929688	-33.747978
11638.696289	-34.501095
11649.462891	-34.018322
11660.229492	-34.472862
11670.996094	-34.301857
11681.762695	-34.566490
11692.529297	-34.506336
11703.295898	-34.244167
11714.062500	-33.860432
11724.829102	-33.328568
11735.595703	-33.541786
11746.362305	-33.715080
11757.128906	-33.748550
11767.895508	-33.522472
11778.662109	-34.430252
11789.428711	-34.333611
11800.195312	-34.892567
11810.961914	-34.107277
11821.728516	-34.812828
11832.495117	-34.174709
11843.261719	-34.575489
11854.028320	-34.171268
11864.794922	-34.224327
11875.561523	-33.600891
11886.328125	-34.611240
11897.094727	-33.375896
11907.861328	-33.250954
11918.627930	-34.237835
11929.394531	-34.098808
11940.161133	-34.565956
11950.927734	-34.086636
11961.694336	-33.803989
11972.460938	-34.051464
11983.227539	-34.563595
11993.994141	-33.700756
12004.760742	-33.672634
12015.527344	-34.076649
12026.293945	-34.455181
12037.060547	-35.243916
12047.827148	-34.121986
12058.593750	-33.734959
12069.360352	-34.122463
12080.126953	-33.887604
12090.893555	-35.335049
12101.660156	-33.743401
12112.426758	-33.690384
12123.193359	-34.107475
12133.959961	-33.873295
12144.726562	-33.976509
12155.493164	-33.652176
12166.259766	-33.881317
12177.026367	-34.345322
12187.792969	-33.398273
12198.559570	-34.125866
12209.326172	-33.994339
12220.092773	-34.518253
12230.859375	-34.263920
12241.625977	-34.188854
12252.392578	-34.376152
12263.159180	-34.851238
12273.925781	-33.576492
12284.692383	-34.351818
12295.458984	-34.519024
12306.225586	-33.860546
12316.992188	-33.828808
12327.758789	-34.312950
12338.525391	-34.194851
12349.291992	-34.019936
12360.058594	-34.188599
12370.825195	-33.719299
12381.591797	-33.990360
12392.358398	-34.671062
12403.125000	-33.421947
12413.891602	-33.935863
12424.658203	-34.046989
12435.424805	-34.149887
12446.191406	-33.944168
12456.958008	-34.494263
12467.724609	-33.761108
12478.491211	-33.865402
12489.257812	-33.907646
12500.024414	-34.232170
12510.791016	-33.694996
12521.557617	-34.077267
12532.324219	-34.190556
12543.090820	-34.567379
12553.857422	-33.119419
12564.624023	-34.008278
12575.390625	-33.481171
12586.157227	-33.900139
12596.923828	-34.235184
12607.690430	-34.511818
12618.457031	-33.755424
12629.223633	-33.842758
12639.990234	-33.218811
12650.756836	-33.943436
12661.523438	-33.655598
12672.290039	-33.656075
12683.056641	-34.924278
12693.823242	-34.391350
12704.589844	-34.506596
12715.356445	-33.884888
12726.123047	-34.102551
12736.889648	-34.483715
12747.656250	-34.335285
12758.422852	-33.949558
12769.189453	-34.077316
12779.956055	-33.937569
12790.722656	-34.326775
12801.489258	-33.826599
12812.255859	-34.021572
12823.022461	-33.867752
12833.789062	-34.331013
12844.555664	-33.729645
12855.322266	-33.936039
12866.088867	-34.052071
12876.855469	-34.042877
12887.622070	-33.870262
12898.388672	-34.316944
12909.155273	-33.991405
12919.921875	-33.882435
12930.688477	-34.492527
12941.455078	-33.574368
12952.221680	-33.807888
12962.988281	-33.437557
12973.754883	-34.320171
12984.521484	-33.696560
12995.288086	-33.967815
13006.054688	-33.777763
13016.821289	-33.767349
13027.587891	-33.894360
13038.354492	-34.250603
13049.121094	-34.617310
13059.887695	-34.835262
13070.654297	-34.623734
13081.420898	-34.236423
13092.187500	-34.012321
13102.954102	-33.875214
13113.720703	-33.711384
13124.487305	-34.245922
13135.253906	-34.086281
13146.020508	-33.677818
13156.787109	-34.175220
13167.553711	-34.393093
13178.320312	-33.895252
13189.086914	-34.364944
13199.853516	-34.487270
13210.620117	-33.696342
13221.386719	-34.710793
13232.153320	-34.829029
13242.919922	-34.547947
13253.686523	-33.989750
13264.453125	-33.167263
13275.219727	-34.338028
13285.986328	-33.837627
13296.752930	-33.981140
13307.519531	-33.892937
13318.286133	-34.291809
13329.052734	-34.347023
13339.819336	-34.371784
13350.585938	-33.859138
13361.352539	-34.032951
13372.119141	-33.851139
13382.885742	-33.847210
13393.652344	-34.108639
13404.418945	-33.809937
13415.185547	-34.253937
13425.952148	-34.177696
13436.718750	-33.456455
13447.485352	-33.281090
13458.251953	-34.383678
13469.018555	-33.717693
13479.785156	-34.277905
13490.551758	-33.992657
13501.318359	-33.739231
13512.084961	-33.900669
13522.851562	-34.287369
13533.618164	-33.583778
13544.384766	-34.155220
13555.151367	-33.707745
13565.917969	-34.682091
13576.684570	-34.636543
13587.451172	-33.958778
13598.217773	-33.918266
13608.984375	-34.308556
13619.750977	-34.198399
13630.517578	-33.599442
13641.284180	-34.013592
13652.050781	-34.051331
13662.817383	-33.842506
13673.583984	-34.620209
13684.350586	-33.094234
13695.117188	-33.760288
13705.883789	-33.521759
13716.650391	-34.264469
13727.416992	-33.654114
13738.183594	-34.438854
13748.950195	-34.650871
13759.716797	-34.040955
13770.483398	-34.221317
13781.250000	-34.112976
13792.016602	-33.875874
13802.783203	-33.671352
13813.549805	-33.969910
13824.316406	-34.010071
13835.083008	-34.048958
13845.849609	-33.901573
13856.616211	-34.062374
13867.382812	-33.795158
13878.149414	-33.305473
13888.916016	-34.137833
13899.682617	-34.020645
13910.449219	-33.890533
13921.215820	-34.153122
13931.982422	-34.683189
13942.749023	-33.717937
13953.515625	-33.802353
13964.282227	-34.004181
13975.048828	-33.821457
13985.815430	-33.761845
13996.582031	-34.523666
14007.348633	-34.531830
14018.115234	-33.476196
14028.881836	-34.521984
14039.648438	-34.261917
14050.415039	-34.191883
14061.181641	-34.494843
14071.948242	-34.752190
14082.714844	-33.774708
14093.481445	-33.790886
14104.248047	-34.031506
14115.014648	-34.818298
14125.781250	-34.508347
14136.547852	-33.955845
14147.314453	-33.747681
14158.081055	-33.777195
14168.847656	-33.893135
14179.614258	-33.852249
14190.380859	-34.158356
14201.147461	-34.606041
14211.914062	-34.049118
14222.680664	-33.943550
14233.447266	-33.460846
14244.213867	-33.918381
14254.980469	-33.924271
14265.747070	-33.770111
14276.513672	-34.408192
14287.280273	-33.559551
14298.046875	-34.429020
14308.813477	-33.950542
14319.580078	-34.471359
14330.346680	-34.112209
14341.113281	-34.638729
14351.879883	-34.363285
14362.646484	-34.263645
14373.413086	-34.148491
14384.179688	-33.921280
14394.946289	-34.395382
14405.712891	-34.430599
14416.479492	-34.636368
14427.246094	-33.525879
14438.012695	-33.856884
14448.779297	-34.945049
14459.545898	-34.139683
14470.312500	-34.233139
14481.079102	-33.888641
14491.845703	-33.975681
14502.612305	-34.640347
14513.378906	-33.987225
14524.145508	-34.608398
14534.912109	-33.646923
14545.678711	-34.356689
14556.445312	-34.598961
14567.211914	-34.942940
14577.978516	-34.491661
14588.745117	-33.883503
14599.511719	-34.148586
14610.278320	-33.679848
14621.044922	-33.893318
14631.811523	-33.412506
14642.578125	-34.499176
14653.344727	-34.749680
14664.111328	-33.915936
14674.877930	-33.344650
14685.644531	-34.299812
14696.411133	-34.091923
14707.177734	-34.035343
14717.944336	-34.467487
14728.710938	-34.133350
14739.477539	-33.360107
14750.244141	-34.203278
14761.010742	-33.439476
14771.777344	-33.793186
14782.543945	-33.757328
14793.310547	-34.479649
14804.077148	-33.925278
14814.843750	-34.698563
14825.610352	-33.713417
14836.376953	-33.857727
14847.143555	-33.672611
14857.910156	-34.539928
14868.676758	-34.391758
14879.443359	-33.892872
14890.209961	-34.287361
14900.976562	-34.462830
14911.743164	-33.747791
14922.509766	-33.714775
14933.276367	-34.097630
14944.042969	-34.118729
14954.809570	-34.203720
14965.576172	-34.624165
14976.342773	-33.781437
14987.109375	-34.176010
14997.875977	-34.422798
15008.642578	-34.207413
15019.409180	-33.742264
15030.175781	-34.013100
15040.942383	-34.815994
15051.708984	-34.313766
15062.475586	-33.662659
15073.242188	-34.533283
15084.008789	-34.500202
15094.775391	-33.784428
15105.541992	-34.158611
15116.308594	-33.640690
15127.075195	-34.159939
15137.841797	-34.560616
15148.608398	-33.966854
15159.375000	-34.798737
15170.141602	-34.321972
15180.908203	-34.851322
15191.674805	-34.064320
15202.441406	-34.875820
15213.208008	-34.381413
15223.974609	-33.629673
15234.741211	-34.108345
15245.507812	-34.981277
15256.274414	-34.007233
15267.041016	-33.476604
15277.807617	-34.832329
15288.574219	-35.309185
15299.340820	-33.813396
15310.107422	-34.420288
15320.874023	-33.910301
15331.640625	-34.109306
15342.407227	-34.291553
15353.173828	-33.938801
15363.940430	-33.783440
15374.707031	-34.569073
15385.473633	-33.749878
15396.240234	-34.322926
15407.006836	-34.274521
15417.773438	-34.618645
15428.540039	-34.458694
15439.306641	-33.988758
15450.073242	-34.075336
15460.839844	-34.328056
15471.606445	-34.339455
15482.373047	-34.546272
15493.139648	-34.131538
15503.906250	-34.842041
15514.672852	-34.610783
15525.439453	-34.141819
15536.206055	-33.665543
15546.972656	-34.027622
15557.739258	-34.541553
15568.505859	-34.059593
15579.272461	-33.686619
15590.039062	-34.606236
15600.805664	-34.334885
15611.572266	-34.049282
15622.338867	-33.907665
15633.105469	-34.099155
15643.872070	-34.330658
15654.638672	-34.155632
15665.405273	-33.671772
15676.171875	-34.335503
15686.938477	-34.106441
15697.705078	-33.925064
15708.471680	-33.792667
15719.238281	-34.429642
15730.004883	-34.388733
15740.771484	-33.802166
15751.538086	-34.098530
15762.304688	-34.935097
15773.071289	-34.318714
15783.837891	-34.203995
15794.604492	-34.248127
15805.371094	-34.654305
15816.137695	-34.146008
15826.904297	-33.975456
15837.670898	-34.054279
15848.437500	-34.091698
15859.204102	-34.267109
15869.970703	-33.398872
15880.737305	-34.202721
15891.503906	-34.464363
15902.270508	-33.563122
15913.037109	-34.079868
15923.803711	-34.412991
15934.570312	-34.606186
15945.336914	-34.872391
15956.103516	-34.000042
15966.870117	-33.931049
15977.636719	-33.887432
15988.403320	-34.056576
15999.169922	-33.998398
16009.936523	-34.569569
16020.703125	-34.409317
16031.469727	-34.047935
16042.236328	-33.996418
16053.002930	-33.446598
16063.769531	-33.637642
16074.536133	-34.021301
16085.302734	-34.577862
16096.069336	-33.615692
16106.835938	-34.663769
16117.602539	-34.764492
16128.369141	-34.770645
16139.135742	-33.830727
16149.902344	-33.781715
16160.668945	-34.185619
16171.435547	-33.436043
16182.202148	-34.294041
16192.968750	-34.510582
16203.735352	-34.140972
16214.501953	-34.292812
16225.268555	-34.368317
16236.035156	-33.712677
16246.801758	-34.733650
16257.568359	-33.789207
16268.334961	-34.325459
16279.101562	-33.880383
16289.868164	-34.343731
16300.634766	-33.892136
16311.401367	-34.481869
16322.167969	-33.966263
16332.934570	-33.716373
16343.701172	-34.018276
16354.467773	-34.278851
16365.234375	-33.205750
16376.000977	-34.002037
16386.767578	-33.901138
16397.534180	-33.142933
16408.300781	-32.955875
16419.067383	-34.134045
16429.833984	-33.996101
16440.600586	-33.666908
16451.367188	-33.962395
16462.133789	-34.596100
16472.900391	-33.815720
16483.666992	-34.067722
16494.433594	-34.231674
16505.200195	-33.335846
16515.966797	-33.680428
16526.733398	-33.805801
16537.500000	-33.862549
16548.266602	-33.772160
16559.033203	-34.362049
16569.799805	-33.954144
16580.566406	-34.473705
16591.333008	-34.571148
16602.099609	-33.779469
16612.866211	-34.194378
16623.632812	-34.678539
16634.399414	-34.067547
16645.166016	-33.592587
16655.932617	-34.186855
16666.699219	-33.859852
16677.465820	-33.914879
16688.232422	-34.518364
16698.999023	-33.723740
16709.765625	-33.957214
16720.532227	-33.593910
16731.298828	-33.830063
16742.065430	-34.692879
16752.832031	-34.735580
16763.598633	-33.840897
16774.365234	-34.543541
16785.131836	-34.321205
16795.898438	-33.830418
16806.665039	-34.324203
16817.431641	-34.280399
16828.198242	-33.977547
16838.964844	-34.417164
16849.731445	-33.987518
16860.498047	-34.492451
16871.264648	-34.612141
16882.031250	-34.800606
16892.797852	-34.017483
16903.564453	-34.369995
16914.331055	-34.599945
16925.097656	-33.630314
16935.864258	-33.614315
16946.630859	-33.800617
16957.397461	-33.918072
16968.164062	-34.673889
16978.930664	-33.960594
16989.697266	-33.990936
17000.463867	-33.904324
17011.230469	-34.314072
17021.997070	-34.230461
17032.763672	-34.384480
17043.530273	-34.339840
17054.296875	-34.132275
17065.063477	-33.675533
17075.830078	-34.331532
17086.596680	-34.303345
17097.363281	-34.482334
17108.129883	-33.895302
17118.896484	-33.929413
17129.663086	-34.621845
17140.429688	-33.627743
17151.196289	-34.426575
17161.962891	-33.727345
17172.729492	-34.054241
17183.496094	-34.370991
17194.262695	-33.895767
17205.029297	-34.697166
17215.795898	-33.910896
17226.562500	-34.355042
17237.329102	-34.313042
17248.095703	-34.487549
17258.862305	-34.147129
17269.628906	-34.597507
17280.395508	-34.009495
17291.162109	-34.040554
17301.928711	-34.106899
17312.695312	-34.115044
17323.461914	-33.677670
17334.228516	-34.479809
17344.995117	-33.760056
17355.761719	-33.597809
17366.528320	-34.576973
17377.294922	-34.630562
17388.061523	-34.456345
17398.828125	-34.091129
17409.594727	-34.169930
17420.361328	-34.657051
17431.127930	-34.168343
17441.894531	-34.171673
17452.661133	-34.024818
17463.427734	-34.336197
17474.194336	-33.975574
17484.960938	-34.044079
17495.727539	-34.077843
17506.494141	-34.449055
17517.260742	-33.916183
17528.027344	-34.379177
17538.793945	-33.789501
17549.560547	-33.656605
17560.327148	-34.705875
17571.093750	-34.577129
17581.860352	-33.891132
17592.626953	-34.448067
17603.393555	-33.908028
17614.160156	-33.843243
17624.926758	-34.270748
17635.693359	-33.776207
17646.459961	-34.465961
17657.226562	-33.592888
17667.993164	-34.106373
17678.759766	-34.468529
17689.526367	-33.949955
17700.292969	-34.460411
17711.059570	-33.932854
17721.826172	-34.835407
17732.592773	-34.336174
17743.359375	-33.680672
17754.125977	-34.372246
17764.892578	-33.687263
17775.659180	-33.840736
17786.425781	-34.310078
17797.192383	-33.586128
17807.958984	-33.690624
17818.725586	-33.614708
17829.492188	-34.342152
17840.258789	-33.437714
17851.025391	-33.565441
17861.791992	-34.330364
17872.558594	-34.518539
17883.325195	-34.031330
17894.091797	-33.974648
17904.858398	-33.964115
17915.625000	-34.050564
17926.391602	-34.416782
17937.158203	-33.889446
17947.924805	-34.114735
17958.691406	-34.416534
17969.458008	-34.093552
17980.224609	-34.032349
17990.991211	-33.749298
18001.757812	-33.888012
18012.524414	-34.099888
18023.291016	-33.845886
18034.057617	-34.370243
18044.824219	-34.495495
18055.590820	-34.076920
18066.357422	-34.181263
18077.124023	-34.851582
18087.890625	-33.441631
18098.657227	-33.736305
18109.423828	-34.119709
18120.190430	-33.610256
18130.957031	-33.663551
18141.723633	-33.673439
18152.490234	-33.650894
18163.256836	-33.790596
18174.023438	-34.159103
18184.790039	-33.449154
18195.556641	-33.731552
18206.323242	-33.873058
18217.089844	-34.388527
18227.856445	-34.414650
18238.623047	-34.364811
18249.389648	-33.895714
18260.156250	-34.085018
18270.922852	-34.060337
18281.689453	-33.832161
18292.456055	-33.801426
18303.222656	-34.497559
18313.989258	-34.193340
18324.755859	-34.067726
18335.522461	-34.324490
18346.289062	-34.354782
18357.055664	-34.256325
18367.822266	-34.139393
18378.588867	-33.944366
18389.355469	-34.021084
18400.122070	-34.170055
18410.888672	-34.074146
18421.655273	-33.824848
18432.421875	-34.231773
18443.188477	-34.139782
18453.955078	-33.866512
18464.721680	-33.955097
18475.488281	-33.960842
18486.254883	-33.510117
18497.021484	-33.974731
18507.788086	-33.634556
18518.554688	-34.255222
18529.321289	-33.667702
18540.087891	-33.969379
18550.854492	-34.350452
18561.621094	-34.072239
18572.387695	-33.450203
18583.154297	-34.130684
18593.920898	-33.940392
18604.687500	-34.289452
18615.454102	-33.551689
18626.220703	-34.479431
18636.987305	-34.055569
18647.753906	-33.878532
18658.520508	-33.559746
18669.287109	-34.577385
18680.053711	-33.935024
18690.820312	-34.195065
18701.586914	-33.888054
18712.353516	-33.373207
18723.120117	-34.292637
18733.886719	-33.827190
18744.653320	-34.494781
18755.419922	-33.734501
18766.186523	-33.899654
18776.953125	-34.708809
18787.719727	-34.084354
18798.486328	-33.524593
18809.252930	-34.047508
18820.019531	-34.208107
18830.786133	-34.464058
18841.552734	-34.428856
18852.319336	-34.507263
18863.085938	-34.440712
18873.852539	-34.578449
18884.619141	-33.535877
18895.385742	-32.988781
18906.152344	-33.846180
18916.918945	-33.708637
18927.685547	-34.531178
18938.452148	-34.076023
18949.218750	-34.590088
18959.985352	-33.754025
18970.751953	-34.686180
18981.518555	-34.193684
18992.285156	-33.854321
19003.051758	-34.523193
19013.818359	-33.891361
19024.584961	-33.997822
19035.351562	-34.048473
19046.118164	-33.575092
19056.884766	-33.786037
19067.651367	-33.741196
19078.417969	-33.793022
19089.184570	-34.066185
19099.951172	-33.840263
19110.717773	-33.914509
19121.484375	-33.912144
19132.250977	-34.376129
19143.017578	-34.191227
19153.784180	-34.133846
19164.550781	-33.883400
19175.317383	-34.271523
19186.083984	-33.349930
19196.850586	-33.865311
19207.617188	-33.736778
19218.383789	-34.066788
19229.150391	-33.618652
19239.916992	-33.715584
19250.683594	-34.515163
19261.450195	-33.207474
19272.216797	-34.423084
19282.983398	-34.325073
19293.750000	-34.097267
19304.516602	-33.907444
19315.283203	-34.059219
19326.049805	-33.472496
19336.816406	-33.690880
19347.583008	-33.929729
19358.349609	-33.844246
19369.116211	-34.363201
19379.882812	-34.235218
19390.649414	-34.003197
19401.416016	-34.207020
19412.182617	-33.582966
19422.949219	-34.012970
19433.715820	-34.340118
19444.482422	-34.662437
19455.249023	-34.278492
19466.015625	-34.067108
19476.782227	-33.888672
19487.548828	-34.033249
19498.315430	-34.141472
19509.082031	-34.429901
19519.848633	-34.506031
19530.615234	-34.069050
19541.381836	-34.797218
19552.148438	-33.986988
19562.915039	-34.604641
19573.681641	-34.159302
19584.448242	-33.692173
19595.214844	-33.788509
19605.981445	-33.794296
19616.748047	-34.248989
19627.514648	-33.850784
19638.281250	-33.834026
19649.047852	-33.712257
19659.814453	-34.302868
19670.581055	-34.178829
19681.347656	-34.153133
19692.114258	-34.373142
19702.880859	-34.419384
19713.647461	-33.664967
19724.414062	-33.965290
19735.180664	-34.438168
19745.947266	-34.118805
19756.713867	-33.812912
19767.480469	-34.647812
19778.247070	-33.986927
19789.013672	-34.389507
19799.780273	-33.596054
19810.546875	-34.372337
19821.313477	-33.835800
19832.080078	-34.012657
19842.846680	-33.896717
19853.613281	-34.447395
19864.379883	-34.268219
19875.146484	-33.731937
19885.913086	-34.219616
19896.679688	-34.114445
19907.446289	-33.850391
19918.212891	-34.189411
19928.979492	-34.463333
19939.746094	-34.613037
19950.512695	-34.444916
19961.279297	-34.287834
19972.045898	-34.049492
19982.812500	-33.907570
19993.579102	-33.977097
20004.345703	-34.485744
20015.112305	-34.059990
20025.878906	-34.667301
20036.645508	-34.035435
20047.412109	-34.000973
20058.178711	-33.281349
20068.945312	-34.216843
20079.711914	-34.045578
20090.478516	-33.990887
20101.245117	-34.357101
20112.011719	-34.180508
20122.778320	-34.103756
20133.544922	-34.135014
20144.311523	-34.469414
20155.078125	-34.531998
20165.844727	-34.183319
20176.611328	-33.987514
20187.377930	-34.365643
20198.144531	-33.916550
20208.911133	-34.217739
20219.677734	-34.384190
20230.444336	-34.593735
20241.210938	-34.140423
20251.977539	-34.423115
20262.744141	-34.071877
20273.510742	-34.485268
20284.277344	-33.406322
20295.043945	-33.799316
20305.810547	-34.172562
20316.577148	-33.523129
20327.343750	-34.195866
20338.110352	-33.865395
20348.876953	-34.058731
20359.643555	-34.107834
20370.410156	-34.847050
20381.176758	-33.888836
20391.943359	-34.253761
20402.709961	-33.907196
20413.476562	-33.620518
20424.243164	-34.357445
20435.009766	-34.070621
20445.776367	-33.935001
20456.542969	-33.761471
20467.309570	-34.477428
20478.076172	-34.203590
20488.842773	-35.102299
20499.609375	-34.521149
20510.375977	-34.910667
20521.142578	-33.988125
20531.909180	-33.860043
20542.675781	-34.163044
20553.442383	-33.695690
20564.208984	-33.936783
20574.975586	-33.769791
20585.742188	-34.371326
20596.508789	-34.510822
20607.275391	-34.797756
20618.041992	-34.732243
20628.808594	-33.768997
20639.575195	-34.297131
20650.341797	-33.872734
20661.108398	-33.359745
20671.875000	-33.583942
20682.641602	-33.867992
20693.408203	-33.985146
20704.174805	-34.219112
20714.941406	-34.268452
20725.708008	-34.025261
20736.474609	-34.176022
20747.241211	-35.074867
20758.007812	-34.052006
20768.774414	-34.675259
20779.541016	-34.149437
20790.307617	-34.553822
20801.074219	-34.428322
20811.840820	-34.651619
20822.607422	-34.067474
20833.374023	-34.076515
20844.140625	-34.091152
20854.907227	-34.157787
20865.673828	-33.800789
20876.440430	-34.449196
20887.207031	-34.683029
20897.973633	-33.559231
20908.740234	-33.284580
20919.506836	-33.852222
20930.273438	-34.072178
20941.040039	-34.188900
20951.806641	-33.780308
20962.573242	-33.590797
20973.339844	-34.150333
20984.106445	-33.746582
20994.873047	-34.252773
21005.639648	-34.372299
21016.406250	-34.924595
21027.172852	-34.300919
21037.939453	-33.993042
21048.706055	-33.568638
21059.472656	-34.621235
21070.239258	-34.053360
21081.005859	-34.084160
21091.772461	-34.259068
21102.539062	-34.030682
21113.305664	-34.155247
21124.072266	-33.568325
21134.838867	-33.937805
21145.605469	-33.815121
21156.372070	-33.841202
21167.138672	-33.662971
21177.905273	-34.530640
21188.671875	-34.587704
21199.438477	-33.646679
21210.205078	-33.601715
21220.971680	-34.334881
21231.738281	-34.257225
21242.504883	-33.275814
21253.271484	-33.935440
21264.038086	-34.397739
21274.804688	-34.106857
21285.571289	-34.066227
21296.337891	-35.320980
21307.104492	-34.373234
21317.871094	-34.070656
21328.637695	-34.355873
21339.404297	-34.202454
21350.170898	-33.571407
21360.937500	-33.878082
21371.704102	-33.969456
21382.470703	-34.780178
21393.237305	-33.696655
21404.003906	-34.090126
21414.770508	-34.519901
21425.537109	-34.001350
21436.303711	-34.461315
21447.070312	-34.264580
21457.836914	-34.101826
21468.603516	-34.290291
21479.370117	-34.430607
21490.136719	-34.291958
21500.903320	-34.166405
21511.669922	-33.944115
21522.436523	-34.204884
21533.203125	-33.988140
21543.969727	-34.094368
21554.736328	-34.037979
21565.502930	-33.775539
21576.269531	-34.161053
21587.036133	-33.366348
21597.802734	-34.064354
21608.569336	-33.719303
21619.335938	-33.926029
21630.102539	-34.477257
21640.869141	-34.698883
21651.635742	-33.522934
21662.402344	-34.172958
21673.168945	-34.108654
21683.935547	-34.490234
21694.702148	-33.598476
21705.468750	-33.578156
21716.235352	-33.682697
21727.001953	-33.741096
21737.768555	-34.293480
21748.535156	-34.296543
21759.301758	-34.438599
21770.068359	-34.352451
21780.834961	-33.528473
21791.601562	-33.953934
21802.368164	-34.178165
21813.134766	-33.860626
21823.901367	-34.213127
21834.667969	-33.899879
21845.434570	-33.466251
21856.201172	-34.433876
21866.967773	-33.708691
21877.734375	-33.694160
21888.500977	-34.223919
21899.267578	-34.063644
21910.034180	-34.157104
21920.800781	-34.257465
21931.567383	-34.385738
21942.333984	-33.979195
21953.100586	-34.763214
21963.867188	-34.047684
21974.633789	-33.813698
21985.400391	-33.463028
21996.166992	-33.865582
22006.933594	-34.324688
22017.700195	-33.673077
22028.466797	-33.902641
22039.233398	-33.244179
